# Step     T (K)     E_KS (eV)    E_tot (eV)   Vol (A^3)    P (kBar)
     1   3816.99    -898.18142    -896.70127    1000.001       3.359
     2   4078.62    -898.31432    -896.73271    1000.001       3.130
     3   4344.58    -898.42828    -896.74354    1000.001       2.267
     4   4064.79    -898.30282    -896.72657    1000.001       1.688
     5   3695.63    -898.14992    -896.71683    1000.001       1.307
     6   3633.14    -898.12448    -896.71562    1000.001       1.196
     7   3930.88    -898.24650    -896.72218    1000.001       1.492
     8   4302.09    -898.40633    -896.73807    1000.001       2.294
     9   4230.21    -898.38258    -896.74219    1000.001       3.481
    10   3866.60    -898.20225    -896.70286    1000.001       4.110
    11   4125.53    -898.32995    -896.73015    1000.001       3.100
    12   4460.86    -898.47449    -896.74465    1000.001       1.533
    13   4242.32    -898.37319    -896.72810    1000.001       0.315
    14   3884.27    -898.22422    -896.71798    1000.001      -0.590
    15   3795.84    -898.18826    -896.71631    1000.001      -1.078
    16   4052.37    -898.29371    -896.72228    1000.001      -0.996
    17   4397.14    -898.44278    -896.73765    1000.001      -0.230
    18   4314.77    -898.41785    -896.74467    1000.001       1.129
    19   3869.59    -898.20618    -896.70563    1000.001       2.224
    20   4019.62    -898.28666    -896.72793    1000.001       1.873
    21   4319.21    -898.42170    -896.74679    1000.001       1.009
    22   4032.51    -898.29457    -896.73085    1000.001       0.591
    23   3521.27    -898.08633    -896.72085    1000.001       0.551
    24   3187.14    -897.95581    -896.71990    1000.001       0.942
    25   3098.86    -897.92725    -896.72557    1000.001       1.881
    26   3040.83    -897.91707    -896.73790    1000.001       3.424
    27   2604.46    -897.75522    -896.74527    1000.001       5.433
    28   1772.89    -897.40356    -896.71606    1000.001       7.175
    29   1425.30    -897.26872    -896.71602    1000.001       7.438
    30   1638.14    -897.37758    -896.74234    1000.001       6.474
    31   1681.89    -897.39127    -896.73906    1000.001       5.327
    32   1558.13    -897.33849    -896.73427    1000.001       4.199
    33   1536.40    -897.32853    -896.73274    1000.001       3.190
    34   1753.67    -897.41111    -896.73107    1000.001       2.402
    35   2242.30    -897.59892    -896.72940    1000.001       1.920
    36   2928.12    -897.86863    -896.73316    1000.001       1.844
    37   3497.12    -898.10422    -896.74810    1000.001       2.286
    38   3444.56    -898.08126    -896.74553    1000.001       3.102
    39   3191.70    -897.93551    -896.69783    1000.001       3.198
    40   3725.06    -898.18732    -896.74281    1000.001       1.617
    41   4106.44    -898.34008    -896.74768    1000.001      -0.123
    42   3822.09    -898.20996    -896.72783    1000.001      -1.353
    43   3440.57    -898.05170    -896.71752    1000.001      -2.207
    44   3384.56    -898.02796    -896.71550    1000.001      -2.578
    45   3733.66    -898.16917    -896.72133    1000.001      -2.328
    46   4217.85    -898.37480    -896.73920    1000.001      -1.308
    47   4216.81    -898.38696    -896.75177    1000.001       0.441
    48   3729.07    -898.14685    -896.70079    1000.001       1.982
    49   3990.51    -898.27679    -896.72935    1000.001       1.747
    50   4462.92    -898.48280    -896.75217    1000.001       0.842
    51   4217.62    -898.36674    -896.73122    1000.001       0.418
    52   3739.53    -898.16864    -896.71852    1000.001       0.285
    53   3540.33    -898.08835    -896.71548    1000.001       0.467
    54   3755.83    -898.17645    -896.72001    1000.001       1.073
    55   4174.02    -898.35449    -896.73589    1000.001       2.204
    56   4209.25    -898.38499    -896.75273    1000.001       3.840
    57   3664.86    -898.12957    -896.70841    1000.001       5.204
    58   3757.05    -898.17565    -896.71874    1000.001       4.622
    59   4293.29    -898.41819    -896.75334    1000.001       2.846
    60   4154.04    -898.34476    -896.73391    1000.001       1.370
    61   3695.00    -898.15252    -896.71967    1000.001       0.146
    62   3468.17    -898.06087    -896.71598    1000.001      -0.757
    63   3647.75    -898.13418    -896.71966    1000.001      -1.150
    64   4060.43    -898.30858    -896.73403    1000.001      -0.854
    65   4148.97    -898.36228    -896.75339    1000.001       0.199
    66   3571.35    -898.10226    -896.71736    1000.001       1.403
    67   3464.74    -898.05321    -896.70965    1000.001       1.078
    68   3971.90    -898.29318    -896.75295    1000.001      -0.466
    69   3883.87    -898.24139    -896.73530    1000.001      -1.577
    70   3432.87    -898.05055    -896.71935    1000.001      -2.257
    71   3215.05    -897.96152    -896.71479    1000.001      -2.523
    72   3444.31    -898.05351    -896.71787    1000.001      -2.220
    73   3974.45    -898.27247    -896.73126    1000.001      -1.199
    74   4267.10    -898.40721    -896.75252    1000.001       0.605
    75   3848.28    -898.21869    -896.72641    1000.001       2.689
    76   3697.44    -898.13702    -896.70323    1000.001       3.383
    77   4238.40    -898.39661    -896.75305    1000.001       2.549
    78   4217.36    -898.37388    -896.73848    1000.001       1.916
    79   3716.70    -898.16185    -896.72059    1000.001       1.546
    80   3377.67    -898.02417    -896.71438    1000.001       1.341
    81   3480.47    -898.06585    -896.71619    1000.001       1.423
    82   3937.71    -898.25489    -896.72792    1000.001       1.933
    83   4263.39    -898.40302    -896.74976    1000.001       2.982
    84   3900.73    -898.24592    -896.73330    1000.001       4.232
    85   3649.94    -898.11225    -896.69688    1000.001       4.167
    86   4190.63    -898.37599    -896.75095    1000.001       2.342
    87   4273.58    -898.39863    -896.74142    1000.001       0.624
    88   3789.68    -898.19181    -896.72225    1000.001      -0.688
    89   3386.15    -898.02820    -896.71512    1000.001      -1.658
    90   3386.92    -898.02935    -896.71597    1000.001      -2.124
    91   3750.97    -898.18046    -896.72591    1000.001      -1.922
    92   4053.14    -898.31887    -896.74714    1000.001      -0.927
    93   3701.95    -898.17449    -896.73895    1000.001       0.598
    94   3321.86    -897.98032    -896.69217    1000.001       1.221
    95   3831.89    -898.23273    -896.74680    1000.001       0.096
    96   4067.21    -898.32057    -896.74339    1000.001      -0.981
    97   3712.71    -898.16325    -896.72354    1000.001      -1.549
    98   3397.37    -898.03307    -896.71563    1000.001      -1.746
    99   3471.51    -898.06227    -896.71609    1000.001      -1.445
   100   3913.35    -898.24269    -896.72517    1000.001      -0.511
   101   4328.49    -898.42442    -896.74592    1000.001       1.155
   102   4085.23    -898.33006    -896.74589    1000.001       3.330
   103   3601.68    -898.08922    -896.69256    1000.001       4.688
   104   3983.43    -898.28728    -896.74258    1000.001       4.020
   105   4231.54    -898.38689    -896.74599    1000.001       2.960
   106   3843.44    -898.21519    -896.72478    1000.001       2.163
   107   3441.75    -898.05011    -896.71547    1000.001       1.466
   108   3432.16    -898.04609    -896.71516    1000.001       1.004
   109   3833.77    -898.20981    -896.72315    1000.001       0.964
   110   4294.89    -898.40866    -896.74318    1000.001       1.527
   111   4162.28    -898.36447    -896.75042    1000.001       2.623
   112   3633.85    -898.10505    -896.69592    1000.001       3.168
   113   3920.91    -898.25830    -896.73784    1000.001       1.794
   114   4225.94    -898.38893    -896.75020    1000.001      -0.010
   115   3835.90    -898.21593    -896.72844    1000.001      -1.297
   116   3335.22    -898.01058    -896.71725    1000.001      -2.225
   117   3194.05    -897.95414    -896.71556    1000.001      -2.685
   118   3493.62    -898.07655    -896.72179    1000.001      -2.519
   119   3948.92    -898.27137    -896.74006    1000.001      -1.578
   120   3927.16    -898.27528    -896.75241    1000.001       0.089
   121   3435.50    -898.03272    -896.70050    1000.001       1.518
   122   3722.34    -898.17413    -896.73068    1000.001       1.133
   123   4224.39    -898.39105    -896.75291    1000.001       0.112
   124   4020.77    -898.29111    -896.73194    1000.001      -0.391
   125   3604.18    -898.11725    -896.71963    1000.001      -0.548
   126   3473.46    -898.06415    -896.71721    1000.001      -0.318
   127   3744.25    -898.17422    -896.72227    1000.001       0.417
   128   4180.82    -898.35985    -896.73861    1000.001       1.761
   129   4184.26    -898.37692    -896.75435    1000.001       3.661
   130   3610.83    -898.10765    -896.70744    1000.001       5.263
   131   3711.71    -898.16143    -896.72210    1000.001       4.882
   132   4218.38    -898.38931    -896.75351    1000.001       3.346
   133   4058.79    -898.30745    -896.73354    1000.001       2.068
   134   3628.77    -898.12718    -896.72002    1000.001       0.964
   135   3461.25    -898.05920    -896.71699    1000.001       0.115
   136   3703.47    -898.15752    -896.72139    1000.001      -0.273
   137   4153.92    -898.34741    -896.73660    1000.001      -0.015
   138   4235.04    -898.39756    -896.75529    1000.001       0.958
   139   3649.85    -898.13144    -896.71610    1000.001       2.005
   140   3574.66    -898.10081    -896.71463    1000.001       1.445
   141   4044.29    -898.32284    -896.75455    1000.001      -0.254
   142   3887.45    -898.24339    -896.73591    1000.001      -1.498
   143   3394.40    -898.03663    -896.72035    1000.001      -2.328
   144   3154.67    -897.93929    -896.71597    1000.001      -2.741
   145   3371.15    -898.02656    -896.71929    1000.001      -2.573
   146   3887.70    -898.24072    -896.73315    1000.001      -1.675
   147   4154.58    -898.36504    -896.75397    1000.001       0.016
   148   3735.65    -898.17311    -896.72450    1000.001       1.961
   149   3662.40    -898.12750    -896.70729    1000.001       2.481
   150   4244.91    -898.40118    -896.75509    1000.001       1.607
   151   4229.67    -898.37969    -896.73951    1000.001       1.039
   152   3749.65    -898.17635    -896.72231    1000.001       0.801
   153   3428.58    -898.04602    -896.71649    1000.001       0.810
   154   3528.29    -898.08659    -896.71839    1000.001       1.172
   155   3954.31    -898.26374    -896.73034    1000.001       1.997
   156   4219.90    -898.38806    -896.75167    1000.001       3.353
   157   3811.66    -898.20960    -896.73151    1000.001       4.828
   158   3602.94    -898.09691    -896.69976    1000.001       4.847
   159   4177.04    -898.37281    -896.75303    1000.001       3.100
   160   4266.71    -898.39645    -896.74190    1000.001       1.437
   161   3818.83    -898.20439    -896.72352    1000.001       0.114
   162   3464.42    -898.06032    -896.71688    1000.001      -0.912
   163   3503.22    -898.07660    -896.71812    1000.001      -1.460
   164   3876.78    -898.23186    -896.72852    1000.001      -1.355
   165   4143.90    -898.35646    -896.74954    1000.001      -0.474
   166   3734.47    -898.18616    -896.73801    1000.001       0.892
   167   3348.88    -897.99279    -896.69416    1000.001       1.270
   168   3833.85    -898.23545    -896.74876    1000.001      -0.058
   169   3998.14    -898.29320    -896.74280    1000.001      -1.279
   170   3604.58    -898.12101    -896.72323    1000.001      -1.998
   171   3287.58    -897.99065    -896.71580    1000.001      -2.337
   172   3382.97    -898.02836    -896.71651    1000.001      -2.157
   173   3856.36    -898.22141    -896.72599    1000.001      -1.311
   174   4295.82    -898.41292    -896.74709    1000.001       0.311
   175   4070.08    -898.32306    -896.74476    1000.001       2.474
   176   3646.79    -898.10752    -896.69337    1000.001       3.820
   177   4069.90    -898.32325    -896.74503    1000.001       3.241
   178   4288.23    -898.40918    -896.74629    1000.001       2.405
   179   3862.33    -898.22282    -896.72508    1000.001       1.884
   180   3430.67    -898.04611    -896.71577    1000.001       1.488
   181   3399.67    -898.03360    -896.71527    1000.001       1.321
   182   3791.44    -898.19360    -896.72335    1000.001       1.539
   183   4249.42    -898.39145    -896.74360    1000.001       2.295
   184   4120.35    -898.34708    -896.74929    1000.001       3.497
   185   3644.81    -898.10859    -896.69520    1000.001       4.023
   186   3997.46    -898.29001    -896.73987    1000.001       2.572
   187   4314.13    -898.42296    -896.75003    1000.001       0.706
   188   3926.97    -898.25125    -896.72846    1000.001      -0.676
   189   3431.08    -898.04815    -896.71764    1000.001      -1.722
   190   3284.64    -897.98986    -896.71614    1000.001      -2.313
   191   3561.66    -898.10369    -896.72255    1000.001      -2.277
   192   3970.65    -898.28072    -896.74098    1000.001      -1.470
   193   3881.30    -898.25692    -896.75183    1000.001       0.046
   194   3357.15    -898.00070    -896.69886    1000.001       1.266
   195   3645.75    -898.14631    -896.73256    1000.001       0.662
   196   4117.93    -898.34905    -896.75220    1000.001      -0.502
   197   3903.85    -898.24493    -896.73109    1000.001      -1.128
   198   3516.86    -898.08316    -896.71939    1000.001      -1.384
   199   3438.88    -898.05095    -896.71742    1000.001      -1.205
   200   3764.47    -898.18284    -896.72305    1000.001      -0.453
